Time [d]	target cell [K]
25.0003 292.142
25.001 292.147
25.0017 292.126
25.0024 292.127
25.0031 292.11
25.0038 292.118
25.0045 292.129
25.0052 292.125
25.0059 292.106
25.0066 292.118
25.0073 292.088
25.008 292.098
25.0087 292.087
25.0094 292.1
25.01 292.051
25.0107 292.058
25.0114 292.054
25.0121 292.058
25.0128 292.035
25.0135 292.052
25.0142 292.036
25.0149 292.029
25.0156 292.048
25.0163 292.031
25.017 292.031
25.0177 292.013
25.0184 292.014
25.0191 292.016
25.0198 292.013
25.0205 291.996
25.0212 291.986
25.0219 291.977
25.0225 291.997
25.0232 291.98
25.0242 291.977
25.0249 291.977
25.0256 291.973
25.0263 291.957
25.027 291.963
25.0277 291.958
25.0284 291.938
25.0291 291.94
25.0298 291.945
25.0305 291.922
25.0312 291.921
25.0319 291.921
25.0326 291.921
25.0333 291.902
25.034 291.92
25.0347 291.922
25.0353 291.907
25.036 291.909
25.0367 291.905
25.0374 291.886
25.0381 291.882
25.0388 291.885
25.0395 291.884
25.0402 291.872
25.0409 291.882
25.0416 291.867
25.0423 291.851
25.043 291.871
25.0437 291.851
25.0444 291.843
25.0451 291.831
25.0458 291.842
25.0465 291.831
25.0472 291.825
25.0479 291.832
25.0486 291.833
25.0492 291.835
25.0499 291.813
25.0506 291.814
25.0513 291.803
25.052 291.798
25.0527 291.793
25.0534 291.791
25.0541 291.794
25.0548 291.771
25.0555 291.777
25.0562 291.759
25.0569 291.775
25.0576 291.76
25.0583 291.76
25.059 291.753
25.0597 291.739
25.0604 291.752
25.0611 291.737
25.0617 291.736
25.0624 291.733
25.0631 291.736
25.0638 291.723
25.0645 291.742
25.0654 291.72
25.0661 291.688
25.0668 291.703
25.0675 291.701
25.0682 291.683
25.0689 291.695
25.0696 291.681
25.0703 291.674
25.071 291.702
25.0717 291.664
25.0724 291.665
25.0731 291.662
25.0738 291.663
25.0745 291.663
25.0752 291.647
25.0758 291.643
25.0765 291.645
25.0772 291.628
25.0779 291.629
25.0786 291.632
25.0793 291.644
25.08 291.608
25.0807 291.61
25.0814 291.61
25.0821 291.61
25.0828 291.599
25.0835 291.591
25.0842 291.585
25.0849 291.593
25.0856 291.553
25.0863 291.553
25.087 291.574
25.0877 291.553
25.0883 291.549
25.089 291.538
25.0897 291.536
25.0904 291.521
25.0911 291.518
25.0918 291.536
25.0925 291.521
25.0932 291.502
25.0939 291.5
25.0946 291.499
25.0953 291.515
25.096 291.494
25.0967 291.481
25.0974 291.494
25.0981 291.482
25.0988 291.482
25.0995 291.463
25.1002 291.463
25.1008 291.464
25.1015 291.452
25.1022 291.442
25.1029 291.444
25.1036 291.445
25.1043 291.423
25.105 291.444
25.1057 291.437
25.1064 291.423
25.1073 291.408
25.108 291.426
25.1087 291.409
25.1094 291.408
25.1101 291.399
25.1108 291.404
25.1115 291.384
25.1122 291.37
25.1129 291.394
25.1136 291.371
25.1143 291.372
25.115 291.373
25.1156 291.368
25.1163 291.37
25.117 291.371
25.1177 291.353
25.1184 291.35
25.1191 291.352
25.1198 291.333
25.1205 291.331
25.1212 291.335
25.1219 291.331
25.1226 291.316
25.1233 291.313
25.124 291.298
25.1247 291.298
25.1254 291.298
25.1261 291.298
25.1268 291.297
25.1275 291.278
25.1281 291.279
25.1288 291.259
25.1295 291.264
25.1302 291.278
25.1309 291.275
25.1316 291.263
25.1323 291.261
25.133 291.246
25.1337 291.255
25.1344 291.239
25.1351 291.255
25.1358 291.245
25.1365 291.208
25.1372 291.221
25.1379 291.228
25.1386 291.204
25.1393 291.206
25.14 291.22
25.1406 291.204
25.1413 291.187
25.142 291.203
25.1427 291.187
25.1434 291.187
25.1441 291.169
25.1448 291.17
25.1455 291.168
25.1462 291.185
25.1469 291.183
25.1476 291.169
25.1483 291.153
25.1492 291.138
25.1499 291.135
25.1506 291.144
25.1513 291.146
25.152 291.119
25.1527 291.133
25.1534 291.124
25.1541 291.111
25.1547 291.098
25.1554 291.113
25.1561 291.111
25.1568 291.079
25.1575 291.095
25.1582 291.091
25.1589 291.094
25.1596 291.077
25.1603 291.093
25.161 291.079
25.1617 291.042
25.1624 291.048
25.1631 291.043
25.1638 291.042
25.1645 291.023
25.1652 291.031
25.1659 291.022
25.1666 291.027
25.1672 291.012
25.1679 291.003
25.1686 290.997
25.1693 291.004
25.17 291.003
25.1707 291.002
25.1714 290.988
25.1721 291
25.1728 290.97
25.1735 290.983
25.1742 290.982
25.1749 290.967
25.1756 290.975
25.1763 290.964
25.177 290.963
25.1777 290.966
25.1784 290.948
25.1791 290.949
25.1797 290.95
25.1804 290.928
25.1811 290.93
25.1818 290.928
25.1825 290.921
25.1832 290.91
25.1839 290.912
25.1846 290.91
25.1853 290.906
25.186 290.91
25.1867 290.892
25.1874 290.89
25.1881 290.894
25.1888 290.874
25.1895 290.878
25.1902 290.891
25.191 290.871
25.1917 290.876
25.1924 290.854
25.1931 290.85
25.1938 290.852
25.1944 290.854
25.1951 290.836
25.1958 290.837
25.1965 290.819
25.1972 290.828
25.1979 290.819
25.1986 290.817
25.1993 290.801
25.2 290.81
25.2007 290.804
25.2014 290.804
25.2021 290.797
25.2028 290.801
25.2035 290.783
25.2042 290.782
25.2049 290.799
25.2056 290.775
25.2063 290.786
25.2069 290.772
25.2076 290.766
25.2083 290.765
25.209 290.76
25.2097 290.754
25.2104 290.747
25.2111 290.747
25.2118 290.744
25.2125 290.755
25.2132 290.746
25.2139 290.727
25.2146 290.726
25.2153 290.729
25.216 290.71
25.2167 290.723
25.2174 290.707
25.2181 290.708
25.2188 290.71
25.2194 290.723
25.2201 290.691
25.2208 290.697
25.2215 290.692
25.2222 290.691
25.2229 290.689
25.2236 290.691
25.2243 290.691
25.225 290.672
25.2257 290.683
25.2264 290.658
25.2271 290.669
25.2278 290.653
25.2285 290.67
25.2292 290.652
25.2299 290.649
25.2306 290.637
25.2312 290.654
25.2321 290.636
25.2328 290.632
25.2334 290.634
25.2341 290.635
25.2348 290.617
25.2355 290.617
25.2362 290.617
25.2369 290.612
25.2376 290.617
25.2383 290.618
25.239 290.579
25.2397 290.598
25.2404 290.599
25.2411 290.598
25.2418 290.597
25.2425 290.599
25.2432 290.599
25.2439 290.579
25.2446 290.574
25.2453 290.592
25.2459 290.564
25.2466 290.53
25.2473 290.561
25.248 290.561
25.2487 290.558
25.2494 290.576
25.2501 290.554
25.2508 290.563
25.2515 290.555
25.2522 290.561
25.2529 290.551
25.2536 290.524
25.2543 290.504
25.255 290.505
25.2557 290.523
25.2564 290.519
25.2571 290.506
25.2578 290.506
25.2584 290.492
25.2591 290.504
25.2598 290.506
25.2605 290.489
25.2612 290.477
25.2619 290.486
25.2626 290.488
25.2633 290.481
25.264 290.473
25.2647 290.47
25.2654 290.482
25.2661 290.453
25.2668 290.467
25.2675 290.455
25.2682 290.451
25.2689 290.451
25.2696 290.451
25.2703 290.442
25.2709 290.451
25.2716 290.43
25.2723 290.432
25.273 290.44
25.2738 290.435
25.2745 290.432
25.2752 290.452
25.2759 290.429
25.2766 290.418
25.2773 290.435
25.278 290.429
25.2787 290.416
25.2794 290.412
25.2801 290.414
25.2808 290.409
25.2815 290.415
25.2822 290.389
25.2829 290.396
25.2836 290.397
25.2842 290.393
25.2849 290.379
25.2856 290.371
25.2863 290.38
25.287 290.375
25.2877 290.376
25.2884 290.374
25.2891 290.373
25.2898 290.359
25.2905 290.361
25.2912 290.373
25.2919 290.353
25.2926 290.339
25.2933 290.36
25.294 290.336
25.2947 290.357
25.2954 290.35
25.2961 290.341
25.2967 290.338
25.2974 290.339
25.2981 290.335
25.2988 290.338
25.2995 290.342
25.3002 290.355
25.3009 290.321
25.3016 290.317
25.3023 290.323
25.303 290.305
25.3037 290.32
25.3044 290.326
25.3051 290.318
25.3058 290.321
25.3065 290.287
25.3072 290.305
25.3079 290.3
25.3086 290.302
25.3092 290.285
25.3099 290.287
25.3106 290.266
25.3113 290.266
25.312 290.285
25.3127 290.288
25.3134 290.267
25.3141 290.269
25.3148 290.267
25.3157 290.267
25.3164 290.272
25.3171 290.265
25.3178 290.258
25.3185 290.253
25.3192 290.257
25.3199 290.249
25.3206 290.249
25.3213 290.232
25.322 290.244
25.3227 290.232
25.3234 290.247
25.3241 290.232
25.3247 290.239
25.3254 290.23
25.3261 290.228
25.3268 290.212
25.3275 290.213
25.3282 290.229
25.3289 290.21
25.3296 290.211
25.3303 290.209
25.331 290.211
25.3317 290.2
25.3324 290.211
25.3331 290.208
25.3338 290.195
25.3345 290.206
25.3352 290.176
25.3359 290.189
25.3366 290.177
25.3372 290.194
25.3379 290.189
25.3386 290.192
25.3393 290.174
25.34 290.187
25.3407 290.175
25.3414 290.172
25.3421 290.158
25.3428 290.174
25.3435 290.174
25.3442 290.158
25.3449 290.16
25.3456 290.145
25.3463 290.157
25.347 290.153
25.3477 290.158
25.3484 290.149
25.3491 290.138
25.3497 290.139
25.3504 290.141
25.3511 290.147
25.3518 290.139
25.3525 290.131
25.3532 290.121
25.3539 290.125
25.3546 290.121
25.3553 290.132
25.356 290.135
25.3567 290.125
25.3576 290.115
25.3583 290.118
25.359 290.12
25.3597 290.104
25.3604 290.103
25.3611 290.101
25.3618 290.101
25.3625 290.106
25.3631 290.1
25.3638 290.116
25.3645 290.112
25.3652 290.084
25.3659 290.097
25.3666 290.08
25.3673 290.086
25.368 290.085
25.3687 290.095
25.3694 290.088
25.3701 290.098
25.3708 290.086
25.3715 290.085
25.3722 290.097
25.3729 290.085
25.3736 290.085
25.3743 290.101
25.375 290.066
25.3756 290.061
25.3763 290.079
25.377 290.064
25.3777 290.088
25.3784 290.063
25.3791 290.076
25.3798 290.082
25.3805 290.083
25.3812 290.063
25.3819 290.064
25.3826 290.064
25.3833 290.066
25.384 290.06
25.3847 290.066
25.3854 290.066
25.3861 290.054
25.3868 290.081
25.3875 290.067
25.3881 290.064
25.3888 290.061
25.3895 290.068
25.3902 290.077
25.3909 290.033
25.3916 290.037
25.3923 290.068
25.393 290.051
25.3937 290.031
25.3944 290.028
25.3951 290.064
25.3958 290.041
25.3965 290.038
25.3972 290.055
25.3979 290.027
25.3986 290.066
25.3994 290.033
25.4001 290.03
25.4008 290.066
25.4014 290.029
25.4021 290.031
25.4028 290.068
25.4035 290.055
25.4042 290.063
25.4049 290.03
25.4056 290.035
25.4063 290.024
25.407 290.032
25.4077 290.068
25.4084 290.067
25.4091 290.056
25.4098 290.069
25.4105 290.041
25.4112 290.065
25.4119 290.077
25.4126 290.064
25.4133 290.052
25.4139 290.066
25.4146 290.046
25.4153 290.062
25.416 290.03
25.4167 290.039
25.4174 290.065
25.4181 290.057
25.4188 290.07
25.4195 290.058
25.4202 290.075
25.4209 290.067
25.4216 290.065
25.4223 290.084
25.423 290.066
25.4237 290.067
25.4244 290.068
25.4251 290.085
25.4258 290.082
25.4264 290.075
25.4271 290.07
25.4278 290.084
25.4285 290.098
25.4292 290.066
25.4299 290.085
25.4306 290.067
25.4313 290.068
25.432 290.072
25.4327 290.101
25.4334 290.091
25.4341 290.1
25.4348 290.082
25.4355 290.083
25.4362 290.091
25.4369 290.085
25.4376 290.103
25.4383 290.086
25.439 290.102
25.4397 290.121
25.4403 290.098
25.4412 290.103
25.4419 290.108
25.4426 290.101
25.4433 290.103
25.444 290.122
25.4447 290.102
25.4454 290.121
25.4461 290.131
25.4468 290.121
25.4475 290.121
25.4482 290.12
25.4489 290.12
25.4496 290.123
25.4503 290.14
25.451 290.102
25.4517 290.12
25.4523 290.153
25.453 290.122
25.4537 290.137
25.4544 290.14
25.4551 290.138
25.4558 290.139
25.4565 290.139
25.4572 290.137
25.4579 290.139
25.4586 290.14
25.4593 290.156
25.46 290.158
25.4607 290.144
25.4614 290.175
25.4621 290.161
25.4628 290.158
25.4635 290.16
25.4642 290.176
25.4648 290.158
25.4656 290.162
25.4662 290.189
25.4669 290.174
25.4676 290.178
25.4683 290.18
25.469 290.188
25.4697 290.194
25.4704 290.187
25.4711 290.195
25.4718 290.192
25.4725 290.194
25.4732 290.195
25.4739 290.194
25.4746 290.194
25.4753 290.206
25.476 290.194
25.4767 290.204
25.4774 290.216
25.4781 290.23
25.4788 290.212
25.4794 290.212
25.4801 290.217
25.4808 290.242
25.4815 290.232
25.4824 290.23
25.4831 290.231
25.4838 290.252
25.4845 290.247
25.4852 290.23
25.4859 290.231
25.4866 290.251
25.4873 290.269
25.488 290.243
25.4887 290.251
25.4894 290.25
25.49 290.27
25.4907 290.266
25.4914 290.266
25.4921 290.28
25.4928 290.287
25.4935 290.283
25.4942 290.301
25.4949 290.28
25.4956 290.284
25.4963 290.288
25.497 290.289
25.4977 290.302
25.4984 290.288
25.4991 290.299
25.4998 290.304
25.5005 290.302
25.5012 290.307
25.5019 290.311
25.5025 290.321
25.5032 290.301
25.5039 290.322
25.5046 290.32
25.5053 290.327
25.506 290.337
25.5067 290.35
25.5074 290.336
25.5081 290.342
25.5088 290.361
25.5095 290.358
25.5102 290.36
25.5109 290.344
25.5116 290.345
25.5123 290.362
25.513 290.376
25.5137 290.378
25.5144 290.38
25.515 290.389
25.5157 290.378
25.5164 290.397
25.5171 290.391
25.5178 290.399
25.5185 290.399
25.5192 290.401
25.5199 290.418
25.5206 290.401
25.5213 290.417
25.522 290.415
25.5227 290.414
25.5234 290.418
25.5243 290.435
25.525 290.434
25.5257 290.44
25.5264 290.432
25.5271 290.447
25.5278 290.454
25.5284 290.451
25.5291 290.471
25.5298 290.458
25.5305 290.472
25.5312 290.473
25.5319 290.472
25.5326 290.483
25.5333 290.491
25.534 290.489
25.5347 290.49
25.5354 290.49
25.5361 290.508
25.5368 290.507
25.5375 290.51
25.5382 290.506
25.5389 290.511
25.5396 290.516
25.5403 290.527
25.5409 290.516
25.5416 290.526
25.5423 290.527
25.543 290.528
25.5437 290.563
25.5444 290.578
25.5451 290.571
25.5458 290.563
25.5465 290.574
25.5472 290.582
25.5479 290.583
25.5486 290.599
25.5493 290.583
25.55 290.597
25.5507 290.582
25.5514 290.597
25.5521 290.617
25.5528 290.601
25.5534 290.617
25.5541 290.617
25.5548 290.617
25.5555 290.634
25.5562 290.636
25.5569 290.618
25.5576 290.651
25.5583 290.639
25.559 290.654
25.5597 290.651
25.5604 290.652
25.5611 290.653
25.5618 290.652
25.5625 290.671
25.5632 290.654
25.5639 290.691
25.5646 290.687
25.5653 290.673
25.5661 290.69
25.5668 290.703
25.5675 290.689
25.5682 290.692
25.5689 290.71
25.5696 290.708
25.5703 290.708
25.571 290.709
25.5717 290.71
25.5724 290.71
25.5731 290.725
25.5738 290.726
25.5745 290.73
25.5752 290.738
25.5759 290.732
25.5766 290.738
25.5773 290.749
25.578 290.755
25.5786 290.75
25.5793 290.752
25.58 290.768
25.5807 290.766
25.5814 290.767
25.5821 290.785
25.5828 290.768
25.5835 290.783
25.5842 290.785
25.5849 290.801
25.5856 290.786
25.5863 290.802
25.587 290.805
25.5877 290.802
25.5884 290.802
25.5891 290.809
25.5898 290.821
25.5905 290.813
25.5911 290.816
25.5918 290.83
25.5925 290.821
25.5932 290.843
25.5939 290.859
25.5946 290.849
25.5953 290.856
25.596 290.852
25.5967 290.854
25.5974 290.865
25.5981 290.859
25.5988 290.866
25.5995 290.874
25.6002 290.878
25.6009 290.878
25.6016 290.894
25.6023 290.892
25.603 290.888
25.6036 290.894
25.6043 290.908
25.605 290.912
25.6057 290.909
25.6064 290.895
25.6071 290.925
25.608 290.892
25.6087 290.927
25.6094 290.93
25.6101 290.931
25.6108 290.947
25.6115 290.916
25.6122 290.934
25.6129 290.966
25.6136 290.95
25.6143 290.95
25.615 290.952
25.6156 290.951
25.6163 290.967
25.617 290.953
25.6177 290.97
25.6184 290.975
25.6191 290.969
25.6198 290.971
25.6205 290.987
25.6212 290.99
25.6219 290.99
25.6226 291.006
25.6233 291.004
25.624 291.016
25.6247 291.005
25.6254 291.01
25.6261 291.022
25.6268 291.022
25.6275 291.035
25.6281 291.009
25.6288 291.025
25.6295 291.042
25.6302 291.024
25.6309 291.041
25.6316 291.04
25.6323 291.069
25.633 291.025
25.6337 291.064
25.6344 291.045
25.6351 291.053
25.6358 291.081
25.6365 291.083
25.6372 291.083
25.6379 291.093
25.6386 291.096
25.6393 291.092
25.64 291.098
25.6406 291.113
25.6413 291.098
25.642 291.097
25.6427 291.095
25.6434 291.114
25.6441 291.119
25.6448 291.117
25.6455 291.135
25.6462 291.118
25.6469 291.125
25.6476 291.127
25.6483 291.148
25.6491 291.135
25.6498 291.151
25.6505 291.154
25.6512 291.138
25.6519 291.153
25.6526 291.152
25.6533 291.174
25.654 291.162
25.6547 291.172
25.6553 291.155
25.656 291.173
25.6567 291.177
25.6574 291.173
25.6581 291.188
25.6588 291.188
25.6595 291.203
25.6602 291.192
25.6609 291.194
25.6616 291.207
25.6623 291.21
25.663 291.206
25.6637 291.203
25.6644 291.22
25.6651 291.239
25.6658 291.24
25.6665 291.214
25.6672 291.239
25.6678 291.225
25.6685 291.242
25.6692 291.244
25.6699 291.244
25.6706 291.246
25.6713 291.259
25.672 291.262
25.6727 291.245
25.6734 291.264
25.6741 291.26
25.6748 291.267
25.6755 291.269
25.6762 291.266
25.6769 291.247
25.6776 291.264
25.6783 291.298
25.679 291.284
25.6797 291.279
25.6803 291.284
25.681 291.284
25.6817 291.28
25.6824 291.295
25.6831 291.283
25.6838 291.288
25.6845 291.283
25.6852 291.304
25.6859 291.3
25.6866 291.302
25.6873 291.318
25.688 291.335
25.6887 291.335
25.6894 291.322
25.6901 291.332
25.691 291.336
25.6917 291.331
25.6923 291.334
25.693 291.338
25.6937 291.337
25.6944 291.336
25.6951 291.356
25.6958 291.334
25.6965 291.356
25.6972 291.356
25.6979 291.351
25.6986 291.371
25.6993 291.393
25.7 291.365
25.7007 291.372
25.7014 291.363
25.7021 291.371
25.7028 291.377
25.7035 291.393
25.7042 291.39
25.7048 291.374
25.7055 291.379
25.7062 291.392
25.7069 291.395
25.7076 291.389
25.7083 291.41
25.709 291.407
25.7097 291.411
25.7104 291.408
25.7111 291.41
25.7118 291.412
25.7125 291.419
25.7132 291.411
25.7139 291.426
25.7146 291.427
25.7153 291.416
25.716 291.41
25.7167 291.415
25.7173 291.408
25.718 291.434
25.7187 291.43
25.7194 291.43
25.7201 291.43
25.7208 291.431
25.7215 291.428
25.7222 291.447
25.7229 291.45
25.7236 291.447
25.7243 291.433
25.725 291.447
25.7257 291.43
25.7264 291.445
25.7271 291.446
25.7278 291.447
25.7285 291.447
25.7292 291.467
25.7298 291.461
25.7305 291.466
25.7312 291.468
25.7319 291.469
25.7328 291.471
25.7335 291.463
25.7342 291.463
25.7349 291.469
25.7356 291.483
25.7363 291.485
25.737 291.472
25.7377 291.462
25.7384 291.484
25.7391 291.483
25.7398 291.501
25.7405 291.501
25.7412 291.488
25.7419 291.486
25.7426 291.491
25.7433 291.5
25.7439 291.491
25.7446 291.502
25.7453 291.489
25.746 291.493
25.7467 291.518
25.7474 291.518
25.7481 291.505
25.7488 291.517
25.7495 291.504
25.7502 291.52
25.7509 291.52
25.7516 291.501
25.7523 291.52
25.753 291.538
25.7537 291.518
25.7544 291.519
25.7551 291.533
25.7558 291.517
25.7564 291.536
25.7571 291.518
25.7578 291.523
25.7585 291.539
25.7592 291.519
25.7599 291.523
25.7606 291.523
25.7613 291.54
25.762 291.538
25.7627 291.521
25.7634 291.538
25.7641 291.54
25.7648 291.543
25.7655 291.539
25.7662 291.54
25.7669 291.555
25.7676 291.553
25.7683 291.536
25.7689 291.559
25.7696 291.556
25.7703 291.549
25.771 291.539
25.7717 291.549
25.7724 291.558
25.7731 291.583
25.7738 291.593
25.7747 291.558
25.7754 291.556
25.7761 291.542
25.7767 291.557
25.7774 291.557
25.7781 291.556
25.7788 291.592
25.7795 291.592
25.7802 291.557
25.7809 291.585
25.7816 291.669
25.7823 291.647
25.783 291.657
25.7837 291.649
25.7844 291.693
25.7851 291.703
25.7858 291.705
25.7865 291.705
25.7872 291.721
25.7879 291.723
25.7886 291.735
25.7892 291.742
25.7899 291.736
25.7906 291.759
25.7913 291.739
25.792 291.744
25.7927 291.724
25.7934 291.723
25.7941 291.723
25.7948 291.722
25.7955 291.74
25.7962 291.738
25.7969 291.723
25.7976 291.727
25.7983 291.722
25.799 291.723
25.7997 291.726
25.8004 291.743
25.8011 291.738
25.8018 291.725
25.8025 291.726
25.8032 291.738
25.8039 291.736
25.8046 291.758
25.8053 291.74
25.806 291.744
25.8067 291.734
25.8073 291.742
25.808 291.738
25.8087 291.72
25.8094 291.729
25.8101 291.724
25.8108 291.725
25.8115 291.744
25.8122 291.74
25.8129 291.742
25.8136 291.741
25.8143 291.741
25.815 291.754
25.8159 291.729
25.8166 291.723
25.8173 291.753
25.818 291.741
25.8187 291.742
25.8194 291.76
25.8201 291.744
25.8208 291.759
25.8215 291.747
25.8222 291.761
25.8228 291.751
25.8235 291.76
25.8242 291.757
25.8249 291.763
25.8256 291.763
25.8263 291.781
25.827 291.781
25.8277 291.786
25.8284 291.796
25.8291 291.777
25.8298 291.795
25.8305 291.783
25.8312 291.8
25.8319 291.81
25.8326 291.81
25.8333 291.799
25.834 291.798
25.8347 291.802
25.8353 291.811
25.836 291.798
25.8367 291.798
25.8374 291.809
25.8381 291.796
25.8388 291.803
25.8395 291.816
25.8402 291.815
25.8409 291.816
25.8416 291.829
25.8423 291.835
25.843 291.832
25.8437 291.816
25.8444 291.833
25.8451 291.832
25.8458 291.829
25.8465 291.834
25.8472 291.833
25.8478 291.833
25.8485 291.822
25.8492 291.832
25.8499 291.839
25.8506 291.815
25.8513 291.833
25.852 291.833
25.8527 291.838
25.8534 291.833
25.8541 291.832
25.8548 291.83
25.8555 291.815
25.8562 291.827
25.8569 291.836
25.8578 291.819
25.8585 291.832
25.8592 291.814
25.8599 291.813
25.8606 291.802
25.8613 291.813
25.862 291.813
25.8627 291.817
25.8634 291.794
25.8641 291.811
25.8648 291.795
25.8655 291.794
25.8662 291.78
25.8669 291.778
25.8676 291.758
25.8683 291.74
25.869 291.673
25.8697 291.669
25.8703 291.678
25.871 291.665
25.8717 291.648
25.8724 291.631
25.8731 291.667
25.8738 291.666
25.8745 291.659
25.8752 291.663
25.8759 291.674
25.8766 291.668
25.8773 291.679
25.878 291.665
25.8787 291.678
25.8794 291.702
25.8801 291.704
25.8808 291.722
25.8815 291.738
25.8822 291.773
